File: Instruments/EIS_C01.mpt
EC-Lab ASCII FILE
Nb header lines : 68

Galvano Electrochemical Impedance Spectroscopy

Run on channel : 1 (SN 66181)
User :
CE vs. WE compliance from -10 V to 10 V
Electrode connection : standard
Potential control : Ewe
Ewe ctrl range : min = -10.00 V, max = 10.00 V
Safety Limits :
	Do not start on E overload
Acquisition started on : 10/21/2024 15:48:27.372
Technique started on : 10/21/2024 15:50:53.754
Loaded Setting File :  NONE
Saved on :
	File : 3-12-002_BoL-02_03_GEIS_C01.mpr
	Directory : C:\Users\patri\OneDrive\Desktop\Electrolysis Data\October_21_2024-3-12-02\Pstat\
	Host : 10.0.109.145
Device : SP-50e (SN .003546)
Address : USB
EC-Lab for windows v11.43 (software)
Internet server v11.40 (firmware)
Command interpretor v11.40 (firmware)
Electrode material :
Initial state :
Electrolyte :
Comments :
Electrode surface area : 4.000 cm²
Characteristic mass : 0.001 g
Volume (V) : 0.001 cm³
Thickness (t) : 0.000 cm
Diameter (d) : 0.000 cm
Cell constant (k=t/A) : 0.000 cm-1
Cycle Definition : Charge/Discharge alternance
Mode                Single sine
Is                  -500.000
unit Is             mA
vs.                 <None>
tIs (h:m:s)         0:00:0.0000
record              0
dE (mV)             0.000
dt (s)              0.000
fi                  1.000
unit fi             MHz
ff                  100.000
unit ff             mHz
Nd                  10
Points              per decade
spacing             Logarithmic
Ia/Va               Ia
Ia                  250.000
unit  Ia            mA
va pourcent         0.10
pw                  0.10
Na                  2
corr                0
E range min (V)     -10.000
E range max (V)     10.000
I Range             1 A
Bandwidth           5
nc cycles           0
goto Ns'            0
nr cycles           0
inc. cycle          0

freq/Hz	Re(Z)/Ohm	-Im(Z)/Ohm	|Z|/Ohm	Phase(Z)/deg	time/s	<Ewe>/V	<I>/mA	Cs/µF	Cp/µF	cycle number	|Ewe|/V	|I|/A	Ns	I Range	(Q-Qo)/mA.h	Re(Y)/Ohm-1	Im(Y)/Ohm-1	|Y|/Ohm-1	Phase(Y)/deg	Re(C)/nF	Im(C)/nF	|C|/nF	Phase(C)/deg	Re(M)	Im(M)	|M|	Phase(M)/deg	Re(Permittivity)	Im(Permittivity)	|Permittivity|	Phase(Permittivity)/deg	Re(Resistivity)/Ohm.cm	Im(Resistivity)/Ohm.cm	|Resistivity|/Ohm.cm	Phase(Resistivity)/deg	Re(Conductivity)/mS/cm	Im(Conductivity)/mS/cm	|Conductivity|/mS/cm	Phase(Conductivity)/deg	Tan(Delta)	Loss Angle(Delta)/deg	dq/mA.h
1.00002e+06	0.441418	0.151815	0.466795	-18.9794	146.382	-3.34992	-500.279	1.04833	0.110885	1	7.33247e-05	0.000157081	0	9	-0.454244	2.0258	0.696725	2.14227	18.9794	110.885	322.411	340.946	-71.0206	0.0000000E+000	0.0000000E+000	0.0000000E+000	71.0206	0.0000000E+000	0.0000000E+000	0.0000000E+000	-71.0206	0.0000000E+000	0.0000000E+000	0.0000000E+000	-18.9794	0.0000000E+000	0.0000000E+000	0.0000000E+000	18.9794	2.90761	18.9794	-0.454244
392824	0.342046	0.0673836	0.34862	-11.1446	155.704	-3.34913	-500.095	6.01268	0.224631	1	0.00160076	0.00459171	0	9	-1.74712	2.81436	0.554432	2.86845	11.1446	224.632	1140.25	1162.17	-78.8554	0.0000000E+000	0.0000000E+000	0.0000000E+000	78.8554	0.0000000E+000	0.0000000E+000	0.0000000E+000	-78.8554	0.0000000E+000	0.0000000E+000	0.0000000E+000	-11.1446	0.0000000E+000	0.0000000E+000	0.0000000E+000	11.1446	5.07611	11.1446	-0.424162
154311	0.354448	0.0809728	0.36358	-12.8682	167.936	-3.34546	-500.26	12.7375	0.631777	1	0.030906	0.0850048	0	9	-3.44418	2.68135	0.612547	2.75043	12.8682	631.777	2765.52	2836.77	-77.1318	0.0000000E+000	0.0000000E+000	0.0000000E+000	77.1318	0.0000000E+000	0.0000000E+000	0.0000000E+000	-77.1318	0.0000000E+000	0.0000000E+000	0.0000000E+000	-12.8682	0.0000000E+000	0.0000000E+000	0.0000000E+000	12.8682	4.37738	12.8682	-0.424345
60616.5	0.424941	0.113239	0.43977	-14.9215	177.394	-3.34691	-500.228	23.1865	1.53735	1	0.11257	0.255976	0	9	-4.75547	2.19724	0.585522	2.27392	14.9215	1537.35	5769.08	5970.41	-75.0785	0.0000000E+000	0.0000000E+000	0.0000000E+000	75.0785	0.0000000E+000	0.0000000E+000	0.0000000E+000	-75.0785	0.0000000E+000	0.0000000E+000	0.0000000E+000	-14.9215	0.0000000E+000	0.0000000E+000	0.0000000E+000	14.9215	3.75262	14.9215	-0.039005
23808.6	0.508273	0.0933606	0.516777	-10.4082	179.114	-3.34579	-500.165	71.6015	2.33692	1	0.132547	0.256488	0	9	-4.99277	1.90323	0.349589	1.93507	10.4082	2336.92	12722.6	12935.5	-79.5918	0.0000000E+000	0.0000000E+000	0.0000000E+000	79.5918	0.0000000E+000	0.0000000E+000	0.0000000E+000	-79.5918	0.0000000E+000	0.0000000E+000	0.0000000E+000	-10.4082	0.0000000E+000	0.0000000E+000	0.0000000E+000	10.4082	5.4442	10.4082	-0.0591707
9351.33	0.548709	0.058112	0.551777	-6.04548	180.4	-3.34568	-500.143	292.874	3.24852	1	0.150868	0.273421	0	9	-5.16995	1.80225	0.19087	1.81233	6.04548	3248.52	30673.3	30844.9	-83.9545	0.0000000E+000	0.0000000E+000	0.0000000E+000	83.9545	0.0000000E+000	0.0000000E+000	0.0000000E+000	-83.9545	0.0000000E+000	0.0000000E+000	0.0000000E+000	-6.04548	0.0000000E+000	0.0000000E+000	0.0000000E+000	6.04548	9.44226	6.04548	-0.039822
3676.18	0.567593	0.0445095	0.569335	-4.48385	182.246	-3.34606	-500.066	972.681	5.94485	1	0.149769	0.26306	0	9	-5.42385	1.75106	0.137315	1.75643	4.48385	5944.85	75809.7	76042.4	-85.5162	0.0000000E+000	0.0000000E+000	0.0000000E+000	85.5162	0.0000000E+000	0.0000000E+000	0.0000000E+000	-85.5162	0.0000000E+000	0.0000000E+000	0.0000000E+000	-4.48385	0.0000000E+000	0.0000000E+000	0.0000000E+000	4.48385	12.7522	4.48385	-0.063572
1443.61	0.590127	0.0472922	0.592019	-4.58184	184.091	-3.34289	-500.072	2331.2	14.8761	1	0.156882	0.264994	0	9	-5.6776	1.68374	0.134933	1.68914	4.58184	14876.1	185628	186223	-85.4182	0.0000000E+000	0.0000000E+000	0.0000000E+000	85.4182	0.0000000E+000	0.0000000E+000	0.0000000E+000	-85.4182	0.0000000E+000	0.0000000E+000	0.0000000E+000	-4.58184	0.0000000E+000	0.0000000E+000	0.0000000E+000	4.58184	12.4783	4.58184	-0.0633326
567.36	0.615022	0.0553746	0.61751	-5.14485	185.933	-3.34323	-500.068	5065.83	40.7365	1	0.163832	0.26531	0	9	-5.93178	1.61288	0.145219	1.61941	5.14485	40736.5	452443	454273	-84.8551	0.0000000E+000	0.0000000E+000	0.0000000E+000	84.8551	0.0000000E+000	0.0000000E+000	0.0000000E+000	-84.8551	0.0000000E+000	0.0000000E+000	0.0000000E+000	-5.14485	0.0000000E+000	0.0000000E+000	0.0000000E+000	5.14485	11.1066	5.14485	-0.0631966
222.79	0.653049	0.0682982	0.656611	-5.97049	187.779	-3.34321	-500.074	10459.6	113.166	1	0.17427	0.265408	0	9	-6.18779	1.51471	0.158414	1.52297	5.97049	113166	1.08207e+06	1.08797e+06	-84.0295	0.0000000E+000	0.0000000E+000	0.0000000E+000	84.0295	0.0000000E+000	0.0000000E+000	0.0000000E+000	-84.0295	0.0000000E+000	0.0000000E+000	0.0000000E+000	-5.97049	0.0000000E+000	0.0000000E+000	0.0000000E+000	5.97049	9.56173	5.97049	-0.0644813
87.4534	0.698192	0.0815215	0.702935	-6.65975	189.63	-3.3396	-500.053	22324	300.252	1	0.186593	0.265448	0	9	-6.44306	1.41301	0.164984	1.42261	6.65975	300252	2.57151e+06	2.58898e+06	-83.3402	0.0000000E+000	0.0000000E+000	0.0000000E+000	83.3402	0.0000000E+000	0.0000000E+000	0.0000000E+000	-83.3402	0.0000000E+000	0.0000000E+000	0.0000000E+000	-6.65975	0.0000000E+000	0.0000000E+000	0.0000000E+000	6.65975	8.56452	6.65975	-0.0652217
34.3946	0.755271	0.0903114	0.760651	-6.81876	191.502	-3.34079	-500.063	51237.3	722.272	1	0.201929	0.265469	0	9	-6.7019	1.30536	0.156089	1.31466	6.81876	722272	6.04033e+06	6.08336e+06	-83.1812	0.0000000E+000	0.0000000E+000	0.0000000E+000	83.1812	0.0000000E+000	0.0000000E+000	0.0000000E+000	-83.1812	0.0000000E+000	0.0000000E+000	0.0000000E+000	-6.81876	0.0000000E+000	0.0000000E+000	0.0000000E+000	6.81876	8.36296	6.81876	-0.0647923
13.5009	0.814661	0.0879264	0.819392	-6.16009	193.281	-3.33709	-500.077	134072	1543.81	1	0.217529	0.265477	0	9	-6.94749	1.21337	0.130959	1.22042	6.16009	1.54381e+06	1.43038e+07	1.43869e+07	-83.8399	0.0000000E+000	0.0000000E+000	0.0000000E+000	83.8399	0.0000000E+000	0.0000000E+000	0.0000000E+000	-83.8399	0.0000000E+000	0.0000000E+000	0.0000000E+000	-6.16009	0.0000000E+000	0.0000000E+000	0.0000000E+000	6.16009	9.26526	6.16009	-0.06995
5.30741	0.869833	0.0709399	0.872721	-4.66248	195.048	-3.33223	-500.081	422715	2793.05	1	0.231691	0.265482	0	9	-7.19167	1.14205	0.0931408	1.14584	4.66248	2.79304e+06	3.42471e+07	3.43608e+07	-85.3375	0.0000000E+000	0.0000000E+000	0.0000000E+000	85.3375	0.0000000E+000	0.0000000E+000	0.0000000E+000	-85.3375	0.0000000E+000	0.0000000E+000	0.0000000E+000	-4.66248	0.0000000E+000	0.0000000E+000	0.0000000E+000	4.66248	12.2615	4.66248	-0.0635836
2.08222	0.907525	0.0510802	0.908962	-3.2215	198.135	-3.32962	-500.058	1.49637e+06	4725.57	1	0.241315	0.265485	0	9	-7.61698	1.09842	0.0618246	1.10016	3.2215	4.72557e+06	8.39577e+07	8.40906e+07	-86.7785	0.0000000E+000	0.0000000E+000	0.0000000E+000	86.7785	0.0000000E+000	0.0000000E+000	0.0000000E+000	-86.7785	0.0000000E+000	0.0000000E+000	0.0000000E+000	-3.2215	0.0000000E+000	0.0000000E+000	0.0000000E+000	3.2215	17.7667	3.2215	-0.148359
0.818234	0.924186	0.0189982	0.924381	-1.17765	205.752	-3.32817	-500.051	1.02383e+07	4324.68	1	0.245412	0.265487	0	9	-8.66649	1.08158	0.0222337	1.0818	1.17765	4.32469e+06	2.10378e+08	2.10422e+08	-88.8224	0.0000000E+000	0.0000000E+000	0.0000000E+000	88.8224	0.0000000E+000	0.0000000E+000	0.0000000E+000	-88.8224	0.0000000E+000	0.0000000E+000	0.0000000E+000	-1.17765	0.0000000E+000	0.0000000E+000	0.0000000E+000	1.17765	48.6459	1.17765	-0.349978
0.321449	0.935537	0.00342916	0.935543	-0.210014	224.938	-3.32657	-500.056	1.44384e+08	1939.85	1	0.248375	0.265487	0	9	-11.3472	1.06889	0.00391796	1.0689	0.210014	1.93986e+06	5.29226e+08	5.29229e+08	-89.79	0.0000000E+000	0.0000000E+000	0.0000000E+000	89.79	0.0000000E+000	0.0000000E+000	0.0000000E+000	-89.79	0.0000000E+000	0.0000000E+000	0.0000000E+000	-0.210014	0.0000000E+000	0.0000000E+000	0.0000000E+000	0.210014	272.818	0.210014	-0.935598
0.126203	0.94106	-0.0208675	0.941291	1.27029	273.586	-3.32485	-500.048	-6.04336e+07	-29701	1	0.249908	0.265494	0	9	-18.0814	1.06211	-0.0235517	1.06237	-1.27029	-2.9701e+07	1.33942e+09	1.33975e+09	-91.2703	0.0000000E+000	0.0000000E+000	0.0000000E+000	91.2703	0.0000000E+000	0.0000000E+000	0.0000000E+000	-91.2703	0.0000000E+000	0.0000000E+000	0.0000000E+000	1.27029	0.0000000E+000	0.0000000E+000	0.0000000E+000	-1.27029	-45.0969	-1.27029	-2.26823
0.0999041	0.942305	-0.0297445	0.942774	1.80798	294.67	-3.32391	-500.049	-5.35586e+07	-53312.4	1	0.250301	0.265494	0	9	-20.9319	1.06017	-0.0334651	1.0607	-1.80798	-5.33125e+07	1.68893e+09	1.68978e+09	-91.808	0.0000000E+000	0.0000000E+000	0.0000000E+000	91.808	0.0000000E+000	0.0000000E+000	0.0000000E+000	-91.808	0.0000000E+000	0.0000000E+000	0.0000000E+000	1.80798	0.0000000E+000	0.0000000E+000	0.0000000E+000	-1.80798	-31.6799	-1.80798	-2.85058